   start[kHz] stop[kHz] bw[kHz]
  1     80.00     89.25    9.25
  2     89.25     98.50    9.25
  3     98.50    107.75    9.25
  4    107.75    117.00    9.25
  5    117.00    126.25    9.25
  6    126.25    135.50    9.25
  7    135.50    144.75    9.25
  8    144.75    154.00    9.25
  9    154.00    163.25    9.25
 10    163.25    172.50    9.25
 11    172.50    181.75    9.25
 12    181.75    191.00    9.25
 13    191.00    200.25    9.25
 14    200.25    209.50    9.25
 15    209.50    218.75    9.25
 16    218.75    228.00    9.25
 17    228.00    237.25    9.25
 18    237.25    246.50    9.25
 19    246.50    255.75    9.25
 20    255.75    265.00    9.25
 21    265.00    274.25    9.25
 22    274.25    283.50    9.25
 23    283.50    292.75    9.25
 24    292.75    302.00    9.25
 25    302.00    320.50   18.50
 26    320.50    339.00   18.50
 27    339.00    357.50   18.50
 28    357.50    376.00   18.50
 29    376.00    394.50   18.50
 30    394.50    413.00   18.50
 31    413.00    431.50   18.50
 32    431.50    450.00   18.50
 33    450.00    468.50   18.50
 34    468.50    487.00   18.50
 35    487.00    505.50   18.50
 36    505.50    524.00   18.50
 37    524.00    561.00   37.00
 38    561.00    598.00   37.00
 39    598.00    635.00   37.00
 40    635.00    672.00   37.00
 41    672.00    709.00   37.00
 42    709.00    746.00   37.00
 43    746.00    783.00   37.00
 44    783.00    820.00   37.00
 45    820.00    857.00   37.00
 46    857.00    894.00   37.00
 47    894.00    931.00   37.00
 48    931.00    968.00   37.00
 49    968.00   1042.00   74.00
 50   1042.00   1116.00   74.00
 51   1116.00   1190.00   74.00
 52   1190.00   1264.00   74.00
 53   1264.00   1338.00   74.00
 54   1338.00   1412.00   74.00
 55   1412.00   1486.00   74.00
 56   1486.00   1560.00   74.00
 57   1560.00   1634.00   74.00
 58   1634.00   1708.00   74.00
 59   1708.00   1782.00   74.00
 60   1782.00   1856.00   74.00
 61   1856.00   1930.00   74.00
 62   1930.00   2004.00   74.00
 63   2004.00   2078.00   74.00
 64   2078.00   2300.00  222.00
 65   2300.00   2522.00  222.00
 66   2522.00   2744.00  222.00
 67   2744.00   2966.00  222.00
 68   2966.00   3188.00  222.00
 69   3188.00   3410.00  222.00
 70   3410.00   3632.00  222.00
 71   3632.00   3854.00  222.00
 72   3854.00   4076.00  222.00
 73   4076.00   4298.00  222.00
 74   4298.00   4520.00  222.00
 75   4520.00   4742.00  222.00
 76   4742.00   4964.00  222.00
 77   4964.00   5186.00  222.00
 78   5186.00   5408.00  222.00
 79   5408.00   5630.00  222.00
 80   5630.00   5852.00  222.00
 81   5852.00   6074.00  222.00
 82   6074.00   6296.00  222.00
 83   6296.00   6518.00  222.00
 84   6518.00   6740.00  222.00
 85   6740.00   6962.00  222.00
 86   6962.00   7184.00  222.00
 87   7184.00   7406.00  222.00
 88   7406.00   7628.00  222.00
 89   7628.00   7850.00  222.00
 90   7850.00   8072.00  222.00
 91   8072.00   8294.00  222.00
 92   8294.00   8516.00  222.00
 93   8516.00   8738.00  222.00
 94   8738.00   8960.00  222.00
 95   8960.00   9182.00  222.00
 96   9182.00   9404.00  222.00
 97   9404.00   9626.00  222.00
 98   9626.00   9848.00  222.00
 99   9848.00  10070.00  222.00
100  10070.00  10292.00  222.00
101  10292.00  10514.00  222.00
102  10514.00  10736.00  222.00
103  10736.00  10958.00  222.00
104  10958.00  11180.00  222.00
105  11180.00  11402.00  222.00
106  11402.00  11624.00  222.00
107  11624.00  11846.00  222.00
108  11846.00  12068.00  222.00
109  12068.00  12290.00  222.00
110  12290.00  12512.00  222.00
111  12512.00  12734.00  222.00
112  12734.00  12956.00  222.00
113  12956.00  13178.00  222.00
114  13178.00  13400.00  222.00
115  13400.00  13622.00  222.00
116  13622.00  13844.00  222.00
117  13844.00  14066.00  222.00
118  14066.00  14288.00  222.00
119  14288.00  14510.00  222.00
120  14510.00  14732.00  222.00
121  14732.00  14954.00  222.00
122  14954.00  15176.00  222.00
123  15176.00  15398.00  222.00
124  15398.00  15620.00  222.00
125  15620.00  15842.00  222.00
126  15842.00  16064.00  222.00
127  16064.00  16286.00  222.00
128  16286.00  16508.00  222.00
129  16508.00  16730.00  222.00
130  16730.00  16952.00  222.00
131  16952.00  17174.00  222.00
132  17174.00  17396.00  222.00
133  17396.00  17618.00  222.00
134  17618.00  17840.00  222.00
135  17840.00  18062.00  222.00
136  18062.00  18284.00  222.00
137  18284.00  18506.00  222.00
138  18506.00  18728.00  222.00
139  18728.00  18950.00  222.00
140  18950.00  19172.00  222.00
141  19172.00  19394.00  222.00
142  19394.00  19616.00  222.00
143  19616.00  19838.00  222.00
144  19838.00  20060.00  222.00
145  20060.00  20282.00  222.00
146  20282.00  20504.00  222.00
147  20504.00  20726.00  222.00
148  20726.00  20948.00  222.00
149  20948.00  21170.00  222.00
150  21170.00  21392.00  222.00
151  21392.00  21614.00  222.00
152  21614.00  21836.00  222.00
153  21836.00  22058.00  222.00
154  22058.00  22280.00  222.00
155  22280.00  22502.00  222.00
156  22502.00  22724.00  222.00
157  22724.00  22946.00  222.00
158  22946.00  23168.00  222.00
159  23168.00  23390.00  222.00
160  23390.00  23612.00  222.00
161  23612.00  23834.00  222.00
162  23834.00  24056.00  222.00
163  24056.00  24278.00  222.00
164  24278.00  24500.00  222.00
165  24500.00  24722.00  222.00
166  24722.00  24944.00  222.00
167  24944.00  25166.00  222.00
168  25166.00  25388.00  222.00
169  25388.00  25610.00  222.00
170  25610.00  25832.00  222.00
171  25832.00  26054.00  222.00
172  26054.00  26276.00  222.00
173  26276.00  26498.00  222.00
174  26498.00  26720.00  222.00
175  26720.00  26942.00  222.00
176  26942.00  27164.00  222.00
177  27164.00  27386.00  222.00
178  27386.00  27608.00  222.00
179  27608.00  27830.00  222.00
180  27830.00  28052.00  222.00
181  28052.00  28274.00  222.00
182  28274.00  28496.00  222.00
183  28496.00  28718.00  222.00
184  28718.00  28940.00  222.00
185  28940.00  29162.00  222.00
186  29162.00  29384.00  222.00
187  29384.00  29606.00  222.00
188  29606.00  29828.00  222.00
189  29828.00  30050.00  222.00
190  30050.00  30272.00  222.00
191  30272.00  30494.00  222.00
192  30494.00  30716.00  222.00
193  30716.00  30938.00  222.00
194  30938.00  31160.00  222.00
195  31160.00  31382.00  222.00
196  31382.00  31604.00  222.00
197  31604.00  31826.00  222.00
198  31826.00  32048.00  222.00
199  32048.00  32270.00  222.00
200  32270.00  32492.00  222.00
201  32492.00  32714.00  222.00
202  32714.00  32936.00  222.00
203  32936.00  33158.00  222.00
204  33158.00  33380.00  222.00
205  33380.00  33602.00  222.00
206  33602.00  33824.00  222.00
207  33824.00  34046.00  222.00
208  34046.00  34268.00  222.00
209  34268.00  34490.00  222.00
210  34490.00  34712.00  222.00
211  34712.00  34934.00  222.00
212  34934.00  35156.00  222.00
213  35156.00  35378.00  222.00
214  35378.00  35600.00  222.00
215  35600.00  35822.00  222.00
216  35822.00  36044.00  222.00
217  36044.00  36266.00  222.00
218  36266.00  36488.00  222.00
219  36488.00  36710.00  222.00
220  36710.00  36932.00  222.00
221  36932.00  37154.00  222.00
222  37154.00  37376.00  222.00
223  37376.00  37598.00  222.00
224  37598.00  37820.00  222.00
225  37820.00  38042.00  222.00
226  38042.00  38264.00  222.00
227  38264.00  38486.00  222.00
228  38486.00  38708.00  222.00
229  38708.00  38930.00  222.00
230  38930.00  39152.00  222.00
231  39152.00  39374.00  222.00
232  39374.00  39596.00  222.00
233  39596.00  39818.00  222.00
234  39818.00  40040.00  222.00
235  40040.00  40262.00  222.00
236  40262.00  40484.00  222.00
237  40484.00  40706.00  222.00
238  40706.00  40928.00  222.00
239  40928.00  41150.00  222.00
240  41150.00  41372.00  222.00
241  41372.00  41594.00  222.00
242  41594.00  41816.00  222.00
243  41816.00  42038.00  222.00
244  42038.00  42260.00  222.00
245  42260.00  42482.00  222.00
246  42482.00  42704.00  222.00
247  42704.00  42926.00  222.00
248  42926.00  43148.00  222.00
249  43148.00  43370.00  222.00
250  43370.00  43592.00  222.00
251  43592.00  43814.00  222.00
252  43814.00  44036.00  222.00
253  44036.00  44258.00  222.00
254  44258.00  44480.00  222.00
255  44480.00  44702.00  222.00
256  44702.00  44924.00  222.00
